IAD1 		# Must be first four characters
1.4            # Index of refraction of the sample 
1.0            # Index of refraction of the top and bottom slides 
2            # [mm] Thickness of sample 
0.0            # [mm] Thickness of slides 
4.80            # [mm] Diameter of illumination beam 
0.99            # Reflectivity of the reflectance calibration standard 
1               # Number of spheres used for the measurement
		# Properties of sphere used for reflectance measurements
101.6		# [mm] Sphere Diameter  (in * 25.4 mm/in)
12.7		# [mm] Sample Port Diameter
19.05          	# [mm] Entrance Port Diameter
.600		# [mm] Detector Port Diameter
0.980		# Reflectivity of the sphere wall
		# Properties of sphere for transmittance measurements
101.6		# [mm] Sphere Diameter  (in * 25.4 mm/in)
12.70		# [mm] Sample Port Diameter
0.00         	# [mm] Entrance Port Diameter
.600		# [mm] Detector Port Diameter
0.980		# Reflectivity of the sphere wall
2                # Two measurements, i.e., M_R & M_T
320.234000  0.184590  0.511213
321.081707  0.191087  0.533258
321.929208  0.188764  0.517360
322.776501  0.186749  0.534252
323.623587  0.188012  0.519393
324.470466  0.199919  0.548165
325.317138  0.180618  0.514232
326.163602  0.189386  0.534308
327.009860  0.184717  0.514387
327.855910  0.186688  0.527385
328.701754  0.187303  0.524747
329.547390  0.185541  0.516454
330.392819  0.187519  0.524747
331.238041  0.183754  0.542790
332.083056  0.192310  0.534284
332.927864  0.185877  0.520115
333.772465  0.190528  0.526853
334.616859  0.183886  0.526326
335.461046  0.189578  0.529496
336.305026  0.186397  0.516454
337.148798  0.185166  0.526852
337.992364  0.190289  0.527389
338.835722  0.192121  0.520548
339.678874  0.178640  0.508107
340.521818  0.186491  0.524761
341.364556  0.187909  0.534174
342.207086  0.190614  0.529503
343.049410  0.190417  0.525801
343.891526  0.184361  0.504122
344.733436  0.183907  0.504696
345.575138  0.184911  0.520176
346.416633  0.188161  0.512018
347.257922  0.185847  0.535781
348.099003  0.185392  0.511906
348.939878  0.174461  0.497253
349.780545  0.185786  0.515426
350.621006  0.179380  0.518298
351.461259  0.183660  0.512582
352.301306  0.187702  0.503290
353.141145  0.179273  0.514753
353.980778  0.182157  0.499462
354.820204  0.182425  0.516719
355.659422  0.178228  0.504416
356.498434  0.183688  0.509753
357.337239  0.177649  0.490010
358.175837  0.179934  0.501834
359.014228  0.182329  0.504914
359.852412  0.176572  0.499068
360.690389  0.185845  0.494903
361.528159  0.187429  0.510377
362.365722  0.180519  0.511980
363.203079  0.185614  0.505686
364.040228  0.179599  0.511444
364.877171  0.187506  0.501495
365.713907  0.184298  0.508963
366.550435  0.185816  0.500937
367.386757  0.187545  0.508210
368.222872  0.187015  0.499646
369.058781  0.186800  0.513045
369.894482  0.188775  0.499507
370.729976  0.187816  0.499419
371.565264  0.189347  0.507900
372.400345  0.198474  0.504814
373.235219  0.185552  0.482353
374.069886  0.192634  0.523511
374.904346  0.193218  0.479097
375.738599  0.187369  0.502216
376.572646  0.198626  0.511781
377.406485  0.191751  0.486246
378.240118  0.194890  0.495572
379.073544  0.197275  0.494746
379.906764  0.198305  0.499147
380.739776  0.195107  0.491096
381.572582  0.201213  0.492342
382.405181  0.208421  0.502210
383.237573  0.197032  0.482055
384.069758  0.200940  0.496040
384.901736  0.199112  0.485385
385.733508  0.202599  0.477950
386.565073  0.205127  0.493048
387.396431  0.204622  0.482590
388.227583  0.206097  0.477348
389.058527  0.210772  0.473401
389.889265  0.212101  0.485456
390.719796  0.214910  0.476600
391.550120  0.213690  0.481583
392.380238  0.208602  0.462489
393.210149  0.218940  0.473039
394.039853  0.215875  0.471355
394.869351  0.216147  0.472360
395.698641  0.213075  0.468679
396.527725  0.221999  0.463037
397.356603  0.213596  0.460356
398.185273  0.220716  0.465693
399.013737  0.219009  0.464516
399.841994  0.224068  0.478181
400.670045  0.220238  0.464236
401.497888  0.221414  0.469122
402.325525  0.226902  0.465422
403.152956  0.224499  0.457654
403.980180  0.225519  0.458945
404.807197  0.222849  0.447060
405.634007  0.227984  0.455147
406.460611  0.227871  0.459043
407.287008  0.234851  0.468205
408.113198  0.225257  0.454750
408.939182  0.230293  0.455647
409.764959  0.234240  0.459760
410.590530  0.232790  0.449971
411.415893  0.235653  0.460200
412.241051  0.232053  0.460673
413.066001  0.235290  0.462042
413.890745  0.235506  0.459474
414.715282  0.230767  0.444034
415.539613  0.235956  0.450606
416.363737  0.231383  0.453962
417.187655  0.235388  0.451805
418.011366  0.237469  0.458356
418.834870  0.233466  0.447331
419.658168  0.237581  0.450289
420.481259  0.235497  0.441202
421.304144  0.239923  0.455056
422.126822  0.238742  0.444747
422.949293  0.239037  0.454661
423.771558  0.239290  0.456366
424.593616  0.238399  0.453020
425.415468  0.238216  0.451869
426.237113  0.237037  0.449010
427.058552  0.241122  0.451790
427.879784  0.240115  0.452765
428.700810  0.239871  0.452256
429.521629  0.240616  0.453603
430.342241  0.241769  0.450673
431.162647  0.241673  0.451261
431.982847  0.243966  0.449977
432.802840  0.239051  0.447770
433.622626  0.242068  0.452443
434.442206  0.241573  0.451349
435.261580  0.239789  0.445449
436.080747  0.245187  0.454589
436.899707  0.243759  0.449255
437.718461  0.243362  0.448730
438.537009  0.245086  0.452546
439.355350  0.244029  0.450543
440.173484  0.245570  0.454427
440.991412  0.246939  0.452773
441.809134  0.244492  0.452812
442.626649  0.245365  0.452297
443.443958  0.246063  0.450424
444.261060  0.242439  0.451251
445.077956  0.243965  0.451486
445.894645  0.240894  0.446614
446.711128  0.244699  0.451136
447.527405  0.243663  0.449556
448.343475  0.246615  0.454348
449.159339  0.244311  0.449538
449.974996  0.242867  0.446942
450.790447  0.244002  0.450538
451.605691  0.241871  0.450179
452.420729  0.243057  0.447824
453.235561  0.245149  0.451355
454.050186  0.244303  0.453372
454.864605  0.242397  0.449956
455.678818  0.244812  0.449019
456.492824  0.244563  0.451923
457.306624  0.244839  0.454837
458.120217  0.244241  0.450814
458.933604  0.243543  0.452162
459.746785  0.243740  0.451144
460.559759  0.244019  0.452973
461.372527  0.243478  0.451136
462.185089  0.242643  0.448840
462.997444  0.245702  0.456569
463.809593  0.245705  0.454988
464.621535  0.245607  0.453809
465.433272  0.244324  0.452747
466.244802  0.245594  0.455916
467.056125  0.243591  0.453766
467.867243  0.245154  0.454902
468.678154  0.244892  0.457189
469.488858  0.242728  0.450454
470.299357  0.242623  0.452602
471.109649  0.242970  0.453134
471.919735  0.241999  0.453092
472.729614  0.243030  0.453097
473.539288  0.242379  0.452508
474.348755  0.241924  0.455777
475.158015  0.242658  0.456772
475.967070  0.242102  0.456103
476.775918  0.242911  0.454151
477.584560  0.243121  0.458497
478.392996  0.242841  0.456868
479.201225  0.242592  0.455131
480.009248  0.244158  0.456499
480.817065  0.241236  0.455347
481.624676  0.242415  0.454902
482.432080  0.243038  0.456391
483.239279  0.241150  0.455400
484.046271  0.241548  0.456164
484.853057  0.241518  0.455822
485.659636  0.242652  0.458252
486.466010  0.241862  0.455562
487.272177  0.241063  0.456690
488.078138  0.240512  0.454713
488.883893  0.243428  0.460648
489.689442  0.242063  0.459307
490.494784  0.239973  0.455781
491.299920  0.241786  0.457179
492.104851  0.240777  0.456064
492.909575  0.240730  0.458865
493.714092  0.243051  0.460587
494.518404  0.239366  0.458687
495.322509  0.241902  0.460996
496.126409  0.239470  0.458858
496.930102  0.241530  0.460503
497.733589  0.237669  0.457244
498.536870  0.240030  0.459302
499.339945  0.239433  0.457007
500.142814  0.240411  0.458162
500.945476  0.238888  0.459247
501.747933  0.238401  0.458247
502.550183  0.239791  0.461342
503.352227  0.238594  0.457078
504.154065  0.239872  0.458924
504.955697  0.239968  0.462683
505.757123  0.240930  0.463463
506.558343  0.238633  0.461884
507.359357  0.238051  0.457519
508.160165  0.240319  0.461895
508.960766  0.237986  0.462532
509.761162  0.237919  0.459954
510.561351  0.239725  0.461713
511.361335  0.237959  0.459955
512.161112  0.238840  0.462430
512.960683  0.239330  0.461980
513.760049  0.237975  0.463471
514.559208  0.238055  0.462007
515.358161  0.237112  0.461355
516.156908  0.238238  0.462368
516.955449  0.238271  0.465375
517.753784  0.236590  0.461316
518.551913  0.238084  0.462004
519.349837  0.236990  0.466252
520.147554  0.237241  0.465884
520.945065  0.236256  0.464851
521.742370  0.236969  0.464654
522.539469  0.236180  0.462557
523.336362  0.236083  0.463817
524.133049  0.236246  0.464374
524.929530  0.237362  0.466875
525.725805  0.234707  0.465254
526.521875  0.238496  0.465112
527.317738  0.236538  0.468020
528.113395  0.235468  0.463660
528.908846  0.235629  0.464114
529.704092  0.236137  0.469218
530.499131  0.235484  0.463586
531.293964  0.235232  0.467025
532.088592  0.235882  0.467394
532.883014  0.235468  0.466219
533.677229  0.234327  0.465984
534.471239  0.235541  0.467217
535.265043  0.235602  0.469150
536.058641  0.234458  0.467607
536.852033  0.235086  0.467695
537.645219  0.234083  0.466435
538.438199  0.234292  0.468509
539.230973  0.234075  0.466096
540.023542  0.234857  0.467479
540.815904  0.233069  0.466732
541.608061  0.233902  0.470450
542.400011  0.233663  0.467597
543.191756  0.233033  0.468969
543.983295  0.232877  0.468851
544.774629  0.233875  0.470031
545.565756  0.232590  0.468632
546.356677  0.232990  0.469082
547.147393  0.231933  0.467829
547.937903  0.232971  0.469234
548.728206  0.232427  0.466740
549.518305  0.231777  0.470375
550.308197  0.231859  0.470522
551.097883  0.232101  0.469676
551.887364  0.231045  0.468852
552.676639  0.232212  0.471771
553.465707  0.232014  0.471552
554.254571  0.230939  0.469452
555.043228  0.231656  0.471350
555.831680  0.231200  0.472154
556.619925  0.231978  0.472864
557.407965  0.231018  0.470694
558.195799  0.231259  0.470211
558.983428  0.231633  0.470989
559.770850  0.230832  0.471279
560.558067  0.231277  0.473014
561.345078  0.230847  0.472351
562.131884  0.229583  0.472031
562.918483  0.229966  0.471456
563.704877  0.230128  0.472578
564.491065  0.230198  0.474634
565.277048  0.229183  0.473899
566.062824  0.230008  0.470805
566.848395  0.229475  0.473124
567.633760  0.228487  0.471768
568.418920  0.228974  0.472840
569.203873  0.229000  0.472853
569.988621  0.228748  0.472457
570.773164  0.229114  0.475086
571.557500  0.228859  0.472217
572.341631  0.228327  0.473845
573.125556  0.227912  0.474719
573.909276  0.228899  0.474338
574.692790  0.229087  0.476016
575.476098  0.227040  0.475079
576.259200  0.227787  0.475228
577.042097  0.228791  0.475087
577.824788  0.226702  0.473205
578.607274  0.228558  0.475933
579.389553  0.228385  0.476046
580.171628  0.227957  0.475433
580.953496  0.227404  0.477341
581.735159  0.227422  0.475994
582.516616  0.226747  0.476707
583.297868  0.226029  0.476769
584.078914  0.225688  0.473769
584.859754  0.226409  0.476568
585.640389  0.226363  0.477270
586.420818  0.226025  0.476898
587.201041  0.226169  0.477996
587.981059  0.225188  0.475377
588.760871  0.226494  0.477103
589.540478  0.224636  0.474566
590.319879  0.225877  0.476855
591.099075  0.224700  0.477935
591.878065  0.225840  0.479392
592.656849  0.225323  0.477969
593.435428  0.224590  0.477621
594.213801  0.225729  0.478057
594.991969  0.225192  0.477741
595.769931  0.224616  0.479227
596.547687  0.225355  0.478878
597.325238  0.224193  0.477754
598.102584  0.224439  0.481584
598.879723  0.224318  0.477447
599.656658  0.224654  0.478505
600.433387  0.224108  0.479468
601.209910  0.223048  0.478327
601.986228  0.224073  0.480076
602.762340  0.224115  0.483493
603.538247  0.224430  0.482590
604.313948  0.224519  0.479931
605.089444  0.223677  0.480135
605.864734  0.221911  0.478421
606.639819  0.223013  0.479927
607.414698  0.222828  0.480680
608.189372  0.222786  0.482299
608.963840  0.223570  0.482563
609.738103  0.222668  0.482164
610.512160  0.222718  0.481633
611.286012  0.222283  0.480748
612.059658  0.222045  0.479169
612.833099  0.221138  0.480466
613.606335  0.222155  0.482552
614.379365  0.222689  0.480376
615.152189  0.221806  0.480764
615.924809  0.222240  0.482054
616.697222  0.221665  0.481459
617.469431  0.220866  0.482953
618.241434  0.222045  0.483885
619.013231  0.221186  0.482159
619.784823  0.221067  0.482471
620.556210  0.220778  0.483422
621.327391  0.221144  0.483877
622.098367  0.220618  0.483565
622.869137  0.219605  0.482292
623.639702  0.220779  0.484843
624.410062  0.221134  0.485187
625.180216  0.219299  0.483503
625.950165  0.220772  0.484503
626.719909  0.219872  0.483342
627.489447  0.220370  0.485720
628.258780  0.220006  0.483787
629.027907  0.219057  0.482794
629.796829  0.219691  0.484690
630.565546  0.219418  0.485482
631.334058  0.218898  0.485058
632.102364  0.218612  0.484915
632.870464  0.218961  0.485923
633.638360  0.217695  0.482840
634.406050  0.218904  0.486206
635.173535  0.218384  0.486321
635.940814  0.218677  0.485146
636.707888  0.217897  0.487497
637.474757  0.217819  0.485439
638.241421  0.218133  0.485477
639.007879  0.218401  0.485010
639.774132  0.217955  0.487752
640.540179  0.217800  0.485366
641.306022  0.217686  0.487264
642.071659  0.217528  0.488132
642.837091  0.217734  0.487877
643.602317  0.216432  0.486167
644.367339  0.217033  0.485104
645.132155  0.216574  0.486240
645.896765  0.216853  0.486931
646.661171  0.217147  0.488254
647.425371  0.216145  0.488196
648.189366  0.216324  0.486501
648.953156  0.216601  0.487717
649.716740  0.216233  0.488465
650.480120  0.215865  0.488875
651.243294  0.215751  0.487472
652.006263  0.215723  0.490563
652.769027  0.216145  0.489799
653.531585  0.215837  0.490764
654.293938  0.215379  0.488694
655.056086  0.215452  0.489129
655.818029  0.215442  0.489447
656.579767  0.215777  0.490082
657.341299  0.215051  0.489836
658.102627  0.214858  0.489864
658.863749  0.214710  0.488117
659.624666  0.215004  0.490781
660.385378  0.215134  0.491855
661.145884  0.214625  0.490893
661.906186  0.214048  0.490555
662.666282  0.214012  0.488849
663.426173  0.213968  0.490325
664.185859  0.214348  0.492537
664.945340  0.213872  0.490333
665.704616  0.214071  0.492053
666.463687  0.213933  0.491930
667.222552  0.213734  0.492929
667.981213  0.213982  0.492343
668.739668  0.213041  0.491532
669.497918  0.213069  0.491951
670.255963  0.213756  0.491656
671.013803  0.212142  0.490921
671.771438  0.212620  0.493428
672.528868  0.213231  0.491698
673.286093  0.212873  0.493036
674.043112  0.213326  0.494906
674.799927  0.212309  0.494018
675.556536  0.211881  0.492539
676.312941  0.211975  0.493773
677.069140  0.212084  0.493728
677.825134  0.211483  0.492535
678.580923  0.212696  0.494406
679.336508  0.211686  0.493072
680.091887  0.211889  0.495409
680.847061  0.211694  0.492981
681.602030  0.210836  0.493818
682.356794  0.210792  0.492978
683.111353  0.211202  0.495080
683.865707  0.211056  0.495436
684.619856  0.210765  0.495267
685.373800  0.210406  0.494652
686.127539  0.210352  0.495045
686.881073  0.210246  0.496256
687.634402  0.210898  0.496911
688.387526  0.210437  0.495227
689.140444  0.209868  0.495556
689.893158  0.209462  0.494668
690.645667  0.209579  0.495251
691.397971  0.209204  0.494819
692.150071  0.210105  0.496786
692.901965  0.209181  0.496497
693.653654  0.209641  0.495555
694.405138  0.210022  0.498052
695.156417  0.208670  0.496694
695.907491  0.209279  0.497484
696.658361  0.208963  0.495902
697.409025  0.208939  0.497320
698.159485  0.208634  0.495619
698.909739  0.208219  0.496018
699.659789  0.208671  0.495887
700.409633  0.208806  0.496541
701.159273  0.208338  0.496857
701.908708  0.207929  0.496888
702.657938  0.207550  0.497833
703.406963  0.207355  0.496094
704.155783  0.208808  0.499156
704.904399  0.207386  0.498085
705.652809  0.207992  0.500243
706.401014  0.207521  0.497144
707.149015  0.207155  0.497058
707.896811  0.206095  0.498897
708.644402  0.207064  0.498766
709.391788  0.207110  0.499031
710.138969  0.205924  0.498774
710.885945  0.207321  0.499244
711.632717  0.206695  0.500542
712.379283  0.206584  0.498936
713.125645  0.206382  0.499269
713.871802  0.205612  0.497424
714.617754  0.206107  0.499622
715.363502  0.206492  0.502175
716.109044  0.205713  0.499640
716.854382  0.205857  0.499545
717.599515  0.205570  0.499267
718.344443  0.206345  0.501693
719.089166  0.204905  0.497756
719.833684  0.204954  0.500355
720.577998  0.205321  0.500323
721.322107  0.205335  0.501411
722.066011  0.204959  0.500327
722.809710  0.204374  0.500354
723.553205  0.204623  0.501708
724.296495  0.205119  0.502261
725.039580  0.204157  0.501792
725.782460  0.204360  0.500371
726.525136  0.204579  0.502557
727.267606  0.203632  0.500791
728.009872  0.204356  0.501605
728.751934  0.203502  0.500901
729.493790  0.203982  0.503461
730.235442  0.204213  0.502290
730.976889  0.203799  0.499946
731.718131  0.203789  0.502473
732.459169  0.203823  0.502940
733.200002  0.203236  0.501455
733.940630  0.202556  0.501943
734.681054  0.203309  0.501679
735.421272  0.202395  0.502065
736.161286  0.202637  0.501674
736.901096  0.202205  0.501611
737.640701  0.202050  0.503297
738.380101  0.201660  0.501265
739.119296  0.200997  0.502364
739.858287  0.200815  0.500941
740.597073  0.202428  0.502102
741.335654  0.200746  0.502964
742.074031  0.201012  0.501904
742.812203  0.201174  0.501380
743.550171  0.200469  0.501397
744.287933  0.200340  0.501090
745.025491  0.199583  0.500968
745.762845  0.200361  0.502248
746.499994  0.199908  0.502045
747.236938  0.200784  0.502767
747.973678  0.200509  0.504308
748.710213  0.200487  0.505894
749.446543  0.200414  0.504526
750.182669  0.200419  0.503170
750.918590  0.200515  0.504483
751.654307  0.200978  0.506223
752.389819  0.200441  0.506437
753.125126  0.199915  0.503658
753.860229  0.200290  0.505863
754.595128  0.199745  0.506137
755.329821  0.200448  0.507320
756.064310  0.200500  0.507941
756.798595  0.199185  0.506268
757.532675  0.199897  0.506682
758.266551  0.199285  0.507511
759.000221  0.198746  0.506306
759.733688  0.199382  0.507682
760.466950  0.199682  0.506921
761.200007  0.199267  0.506337
761.932860  0.198842  0.506258
762.665508  0.199625  0.508660
763.397952  0.199103  0.508351
764.130191  0.199519  0.510168
764.862226  0.199245  0.508568
765.594056  0.198053  0.508244
766.325682  0.198035  0.508014
767.057103  0.198769  0.509932
767.788320  0.198463  0.508557
768.519332  0.198102  0.510181
769.250139  0.198128  0.509991
769.980743  0.197902  0.511279
770.711142  0.197703  0.508928
771.441336  0.197630  0.510034
772.171326  0.197837  0.511586
772.901111  0.197351  0.509539
773.630692  0.198098  0.512099
774.360068  0.197059  0.512330
775.089241  0.196924  0.511181
775.818208  0.197123  0.510236
776.546971  0.196811  0.509795
777.275530  0.196834  0.511133
778.003884  0.197305  0.511486
778.732034  0.197250  0.512866
779.459980  0.196249  0.511261
780.187721  0.196190  0.512241
780.915257  0.196161  0.510771
781.642590  0.196024  0.513346
782.369717  0.196233  0.512990
783.096641  0.196439  0.512750
783.823360  0.196071  0.511995
784.549875  0.195836  0.515446
785.276185  0.196823  0.514228
786.002291  0.196279  0.513037
786.728192  0.195244  0.514034
787.453889  0.195229  0.513394
788.179382  0.194503  0.512523
788.904671  0.195105  0.512049
789.629755  0.195133  0.512946
790.354635  0.195610  0.515025
791.079310  0.194048  0.514660
791.803781  0.194519  0.511598
792.528048  0.194983  0.516132
793.252110  0.194579  0.515693
793.975968  0.195078  0.512940
794.699622  0.194093  0.512943
795.423072  0.194300  0.515367
796.146317  0.193989  0.514510
796.869358  0.193783  0.514919
797.592194  0.193475  0.514911
798.314826  0.193129  0.515567
799.037254  0.193591  0.514694
799.759478  0.193503  0.514142
800.481497  0.192865  0.513680
801.203312  0.193578  0.516255
801.924923  0.193031  0.516246
802.646330  0.192699  0.515529
803.367532  0.192488  0.515438
804.088530  0.192586  0.516584
804.809324  0.193074  0.516796
805.529913  0.192998  0.517711
806.250299  0.192620  0.517310
806.970480  0.192314  0.518616
807.690457  0.191973  0.516375
808.410229  0.193107  0.519396
809.129797  0.192070  0.517900
809.849162  0.191978  0.516722
810.568322  0.192125  0.516457
811.287277  0.191171  0.516234
812.006029  0.191178  0.517622
812.724576  0.191857  0.517864
813.442919  0.191254  0.516254
814.161058  0.192061  0.518893
814.878993  0.190946  0.520523
815.596723  0.190885  0.517403
816.314250  0.190444  0.517556
817.031572  0.190357  0.518531
817.748690  0.190822  0.518320
818.465604  0.190733  0.519327
819.182313  0.191264  0.519180
819.898819  0.190489  0.519061
820.615120  0.190771  0.519635
821.331217  0.190736  0.519092
822.047111  0.189762  0.517985
822.762800  0.190016  0.520867
823.478284  0.189993  0.519525
824.193565  0.190259  0.521453
824.908642  0.190564  0.521499
825.623514  0.189974  0.520864
826.338182  0.189108  0.520432
827.052647  0.189442  0.520233
827.766907  0.189531  0.523857
828.480963  0.189295  0.522068
829.194815  0.189222  0.522896
829.908463  0.189439  0.520848
830.621906  0.188887  0.521890
831.335146  0.188124  0.522424
832.048182  0.188385  0.520735
832.761013  0.189117  0.522493
833.473640  0.188786  0.521379
834.186064  0.189321  0.523888
834.898283  0.188336  0.523091
835.610298  0.188225  0.522998
836.322110  0.188100  0.520491
837.033717  0.187625  0.522927
837.745120  0.188261  0.524522
838.456319  0.188008  0.522189
839.167314  0.187716  0.523683
839.878105  0.187275  0.523176
840.588692  0.187939  0.522699
841.299075  0.188494  0.524943
842.009254  0.187590  0.523267
842.719229  0.187071  0.524632
843.429000  0.186973  0.523336
844.138567  0.186909  0.522835
844.847930  0.187226  0.524974
845.557089  0.187356  0.526208
846.266045  0.186930  0.524540
846.974796  0.186380  0.524545
847.683343  0.185632  0.522797
848.391686  0.186581  0.524225
849.099825  0.186222  0.524742
849.807760  0.185065  0.524154
850.515491  0.186148  0.526239
851.223019  0.186583  0.528179
851.930342  0.185971  0.525795
852.637461  0.185887  0.524865
853.344377  0.185636  0.525287
854.051088  0.185332  0.526487
854.757596  0.185162  0.526617
855.463900  0.185028  0.524606
856.170000  0.185114  0.526700
856.875895  0.185098  0.524610
857.581587  0.185319  0.526315
858.287075  0.184873  0.526652
858.992360  0.185486  0.526771
859.697440  0.184865  0.524591
860.402316  0.184614  0.528451
861.106989  0.184797  0.527336
861.811457  0.184411  0.528584
862.515722  0.184395  0.527627
863.219783  0.183185  0.526159
863.923640  0.183354  0.525483
864.627293  0.184068  0.527312
865.330742  0.184225  0.527148
866.033988  0.184054  0.527685
866.737029  0.183958  0.529670
867.439867  0.183516  0.528626
868.142501  0.183185  0.528206
868.844931  0.183369  0.528335
869.547157  0.183946  0.527880
870.249180  0.183654  0.531216
870.950998  0.182741  0.530282
871.652613  0.182717  0.528081
872.354024  0.183471  0.527867
873.055231  0.182390  0.528946
873.756235  0.182798  0.529303
874.457034  0.181852  0.529550
875.157630  0.182362  0.527857
875.858022  0.182155  0.529060
876.558210  0.182316  0.529795
877.258194  0.182026  0.529200
877.957975  0.181644  0.528503
878.657552  0.181423  0.530802
879.356925  0.181268  0.529761
880.056095  0.181339  0.529593
880.755060  0.180817  0.528157
881.453822  0.181343  0.529833
882.152380  0.181931  0.530172
882.850735  0.179762  0.528934
883.548885  0.179664  0.529464
884.246832  0.180955  0.530501
884.944575  0.181285  0.531235
885.642115  0.181613  0.532914
886.339451  0.180967  0.533323
887.036583  0.180813  0.531389
887.733511  0.179763  0.530215
888.430236  0.179700  0.532840
889.126756  0.179501  0.531153
889.823074  0.179282  0.530171
890.519187  0.178692  0.530144
891.215097  0.179931  0.530362
891.910803  0.179349  0.531284
892.606306  0.179000  0.531792
893.301605  0.178133  0.529927
893.996700  0.178048  0.528871
894.691591  0.177621  0.528811
895.386279  0.178159  0.529189
896.080763  0.178083  0.528729
896.775044  0.176692  0.528685
897.469121  0.175753  0.525090
898.162994  0.176803  0.527734
898.856664  0.176645  0.528420
899.550130  0.175827  0.525007
900.243392  0.175155  0.525906
900.936451  0.174742  0.521772
901.629306  0.174479  0.525527
902.321958  0.174514  0.521722
903.014406  0.173038  0.520771
903.706650  0.171983  0.519468
904.398691  0.172647  0.517083
905.090528  0.172111  0.518206
905.782162  0.171235  0.516627
906.473592  0.170707  0.515181
907.164818  0.170564  0.514271
907.855841  0.169998  0.512652
908.546660  0.170039  0.513435
909.237276  0.168971  0.511570
909.927688  0.169686  0.513246
910.617897  0.170088  0.516703
911.307902  0.171338  0.520097
911.997704  0.171512  0.519851
912.687302  0.172612  0.522675
913.376696  0.172374  0.525602
914.065887  0.173012  0.526486
914.754874  0.173767  0.530155
915.443658  0.174180  0.530332
916.132239  0.174126  0.529103
916.820616  0.174541  0.531113
917.508789  0.174773  0.531964
918.196759  0.173341  0.531725
918.884525  0.173745  0.533848
919.572088  0.174828  0.535337
920.259447  0.174635  0.534406
920.946603  0.174821  0.535557
921.633556  0.174541  0.536141
922.320305  0.175152  0.539199
923.006850  0.174713  0.536375
923.693192  0.175866  0.538938
924.379331  0.175198  0.540033
925.065266  0.175326  0.539141
925.750998  0.174535  0.539113
926.436526  0.174809  0.540223
927.121851  0.174400  0.542357
927.806972  0.175343  0.539886
928.491890  0.174938  0.542296
929.176604  0.175415  0.542222
929.861115  0.174337  0.540302
930.545423  0.175008  0.541023
931.229527  0.175783  0.542260
931.913428  0.174446  0.540169
932.597126  0.175105  0.543012
933.280620  0.173949  0.544097
933.963910  0.175126  0.544801
934.646997  0.174822  0.543150
935.329881  0.174113  0.541515
936.012562  0.173737  0.542883
936.695039  0.173911  0.543981
937.377313  0.174142  0.542026
938.059383  0.173982  0.542666
938.741250  0.173879  0.544917
939.422914  0.174244  0.543526
940.104374  0.173317  0.540588
940.785631  0.173631  0.542450
941.466684  0.173081  0.541900
942.147535  0.172762  0.542605
942.828182  0.172863  0.544567
943.508625  0.173055  0.542664
944.188866  0.172137  0.543580
944.868903  0.173239  0.544036
945.548736  0.172244  0.543273
946.228367  0.173848  0.547683
946.907794  0.172906  0.543249
947.587017  0.172062  0.545536
948.266038  0.172330  0.545047
948.944855  0.172385  0.542831
949.623469  0.172233  0.544017
950.301879  0.172421  0.543127
950.980087  0.172613  0.550681
951.658091  0.171124  0.545081
952.335891  0.172061  0.542495
953.013489  0.170966  0.544232
953.690883  0.171887  0.544663
954.368074  0.170685  0.543810
955.045062  0.170642  0.542019
955.721846  0.170775  0.542860
956.398428  0.171342  0.543045
957.074806  0.171312  0.545437
957.750981  0.172523  0.548457
958.426952  0.170655  0.543313
959.102721  0.170719  0.546939
959.778286  0.171358  0.548581
960.453648  0.170623  0.543317
961.128806  0.169968  0.544399
961.803762  0.171000  0.547378
962.478514  0.170837  0.546531
963.153063  0.170721  0.545911
963.827409  0.171152  0.548873
964.501552  0.170775  0.549004
965.175492  0.170351  0.546281
965.849228  0.170345  0.548076
966.522761  0.170677  0.547115
967.196091  0.171137  0.549284
967.869218  0.170350  0.550504
968.542142  0.170538  0.550724
969.214863  0.169974  0.545093
969.887380  0.169895  0.547612
970.559694  0.170163  0.545267
971.231806  0.169282  0.546090
971.903714  0.169452  0.550091
972.575419  0.169328  0.549953
973.246920  0.169190  0.549960
973.918219  0.169406  0.548062
974.589315  0.169421  0.550865
975.260207  0.169721  0.550945
975.930896  0.169481  0.550202
976.601383  0.168824  0.550300
977.271666  0.168610  0.551073
977.941746  0.168531  0.549303
978.611623  0.169419  0.555918
979.281297  0.168388  0.549194
979.950768  0.167887  0.550827
980.620036  0.169246  0.549743
981.289100  0.168374  0.553359
981.957962  0.166158  0.546651
982.626620  0.168137  0.551413
983.295076  0.168522  0.550397
983.963328  0.168724  0.552508
984.631378  0.167906  0.550216
985.299224  0.168840  0.551249
985.966868  0.167877  0.549505
986.634308  0.167370  0.550527
987.301545  0.165598  0.549599
987.968580  0.167130  0.551081
988.635411  0.167620  0.549333
989.302039  0.166948  0.552289
989.968465  0.164941  0.545062
990.634687  0.165952  0.549301
991.300706  0.165649  0.548327
991.966522  0.166516  0.552826
992.632136  0.166922  0.550975
993.297546  0.166904  0.556022
993.962753  0.166359  0.552080
994.627758  0.165808  0.548205
995.292559  0.165224  0.551881
995.957157  0.164572  0.548001
996.621553  0.164357  0.548155
997.285745  0.165696  0.548819
997.949735  0.165419  0.553958
998.613522  0.165512  0.554451
999.277105  0.165349  0.549357
999.940486  0.166724  0.548312
1000.603664  0.163827  0.549714
1001.266639  0.164172  0.548933
1001.929411  0.164762  0.555032
1002.591980  0.165836  0.552664
1003.254346  0.165206  0.550358
1003.916509  0.165334  0.551309
1004.578470  0.164624  0.551006
1005.240227  0.163662  0.549304
1005.901782  0.163710  0.550106
1006.563133  0.162819  0.553871
1007.224282  0.165081  0.551223
1007.885228  0.164516  0.550343
1008.545971  0.164136  0.554570
1009.206511  0.164178  0.548555
1009.866848  0.164153  0.552181
1010.526983  0.161556  0.546012
1011.186914  0.163660  0.555451
1011.846643  0.161789  0.545266
1012.506169  0.162933  0.550289
1013.165492  0.162549  0.552594
1013.824612  0.162275  0.551866
1014.483530  0.162864  0.546597
1015.142244  0.162589  0.553048
1015.800756  0.162356  0.547580
1016.459065  0.160963  0.548530
1017.117171  0.162053  0.549884
1017.775074  0.162252  0.550028
1018.432775  0.162421  0.548777
1019.090272  0.160665  0.547911
1019.747567  0.160142  0.546575
1020.404659  0.161629  0.545020
1021.061548  0.161727  0.549588
1021.718235  0.162187  0.551251
1022.374719  0.161667  0.549289
1023.031000  0.161270  0.550720
1023.687078  0.162140  0.551153
1024.342953  0.160904  0.548364
1024.998626  0.163029  0.552044
1025.654096  0.161388  0.548395
1026.309363  0.161198  0.548564
1026.964428  0.161168  0.550025
1027.619289  0.162446  0.550992
1028.273948  0.161380  0.547400
1028.928404  0.160677  0.548861
1029.582658  0.161247  0.550089
1030.236709  0.162229  0.556529
1030.890557  0.162812  0.555298
1031.544202  0.162220  0.554618
1032.197645  0.162955  0.551839
1032.850885  0.160942  0.553341
1033.503922  0.160113  0.550084
1034.156757  0.164090  0.558650
1034.809389  0.160032  0.551163
1035.461818  0.163413  0.558172
1036.114044  0.162352  0.552281
1036.766068  0.161508  0.547892
1037.417889  0.163555  0.552842
1038.069508  0.162657  0.549852
1038.720924  0.162649  0.553554
1039.372137  0.162311  0.557767
1040.023147  0.163728  0.555038
1040.673955  0.165644  0.562289
1041.324561  0.162926  0.560322
1041.974963  0.163453  0.559418
1042.625163  0.162390  0.553329
1043.275161  0.164769  0.560392
1043.924955  0.164862  0.553373
1044.574547  0.161046  0.549815
1045.223937  0.165118  0.557884
1045.873124  0.164648  0.560121
1046.522108  0.167313  0.547652
1047.170890  0.164122  0.550491
1047.819469  0.165917  0.553587
1048.467846  0.165072  0.558130
1049.116020  0.165473  0.556444
1049.763991  0.166731  0.556279
1050.411760  0.166911  0.552954
1051.059326  0.166399  0.557992
1051.706690  0.166227  0.555201
1052.353851  0.163747  0.544495
1053.000809  0.168071  0.555514
1053.647565  0.168719  0.563371
1054.294119  0.167747  0.550607
1054.940470  0.167909  0.548154
1055.586618  0.167310  0.544779
1056.232564  0.169708  0.550776
1056.878307  0.165918  0.549788
1057.523848  0.168000  0.543414
1058.169186  0.169904  0.558029
1058.814322  0.170192  0.547573
1059.459255  0.167934  0.549857
1060.103986  0.170580  0.547003
1060.748514  0.169339  0.556590
1061.392840  0.168964  0.552033
1062.036963  0.167233  0.550675
1062.680884  0.169930  0.545427
1063.324602  0.169865  0.548390
1063.968118  0.167249  0.546667
1064.611431  0.168015  0.545381
1065.254542  0.167724  0.550643
1065.897450  0.173129  0.551009
1066.540156  0.171305  0.543016
1067.182660  0.170227  0.545682
1067.824961  0.168983  0.542290
1068.467059  0.173825  0.546588
1069.108956  0.171979  0.539646
1069.750649  0.175412  0.554337
1070.392141  0.174790  0.550841
1071.033429  0.172860  0.544164
1071.674516  0.171108  0.532674
1072.315400  0.182271  0.551783
1072.956082  0.180283  0.538243
1073.596561  0.175836  0.535183
1074.236838  0.179595  0.543141
1074.876912  0.180899  0.528225
1075.516784  0.176144  0.536095
1076.156454  0.180568  0.538671
1076.795921  0.144524  0.350884
1077.435186  0.379374  -0.000000
1078.074248  -0.185816  -0.751894
1078.713108  -0.130071  -0.105265
1079.351766  0.867142  -0.000000
1079.990221  0.867142  -0.000000
